Czas[s]	Temperatura[K]
20,6370	297,4819
21,6760	297,4793
22,7100	297,4780
23,7440	297,4750
24,7780	297,4735
25,8120	297,4712
26,8460	297,4770
27,8800	297,5709
28,9130	297,7987
29,9470	298,1188
30,9810	298,4976
32,0150	298,9132
33,0490	299,3375
34,0830	299,7768
35,1170	300,2219
36,1520	300,6597
37,1870	301,0836
38,2220	301,4895
39,2570	301,8644
40,2910	302,2197
41,3250	302,5535
42,3590	302,8687
43,3930	303,1646
44,4270	303,4458
45,4610	303,7076
46,4940	303,9535
47,5280	304,1851
48,5620	304,4110
49,5960	304,6239
50,6300	304,8225
51,6640	305,0087
52,6980	305,1859
53,7330	305,3521
54,7680	305,5051
55,8030	305,6478
56,8380	305,7779
57,8720	305,8971
58,9060	306,0118
59,9400	306,1194
60,9740	306,2183
62,0080	306,3139
63,0420	306,4006
64,0750	306,4819
65,1090	306,5550
66,1430	306,6278
67,1770	306,6931
68,2110	306,7604
69,2450	306,8203
70,2790	306,8739
71,3140	306,9275
72,3490	306,9770
73,3840	307,0250
74,4190	307,0695
75,4530	307,1069
76,4870	307,1450
77,5210	307,1808
78,5550	307,2111
79,5890	307,2439
80,6230	307,2747
81,6560	307,2956
82,6900	307,3212
83,7240	307,3452
84,7580	307,3665
85,7920	307,3842
86,8260	307,4003
87,8600	307,4182
88,8950	307,4340
89,9300	307,4498
90,9650	307,4621
92,0000	307,4751
93,0340	307,4856
94,0680	307,4991
95,1020	307,5086
96,1360	307,5200
97,1700	307,5291
98,2040	307,5362
99,2370	307,5449
100,2710	307,5537
101,3050	307,5616
102,3390	307,5672
103,3730	307,5719
104,4070	307,5819
105,4420	307,5847
106,4770	307,5898
107,5120	307,5935
108,5470	307,5990
109,5820	307,6015
110,6160	307,6075
111,6500	307,6111
112,6840	307,6179
113,7180	307,6201
114,7520	307,6217
115,7860	307,6269
116,8190	307,6276
117,8530	307,6301
118,8870	307,6327
119,9210	307,6363
120,9550	307,6391
121,9890	307,6400
123,0230	307,6439
124,0580	307,6452
125,0930	307,6480
126,1280	307,6499
127,1630	307,6505
128,1970	307,6524
129,2310	307,6541
130,2680	307,6567
131,3020	307,6551
132,3360	307,6570
133,3700	307,6589
134,4030	307,6596
135,4370	307,6601
136,4710	307,6616
137,5050	307,6639
138,5390	307,6618
139,5730	307,6627
140,6100	307,6658
141,6450	307,6633
142,6800	307,6666
143,7150	307,6684
144,7500	307,6676
145,7840	307,6664
146,8200	307,6678
147,8540	307,6681
148,8880	307,6679
149,9220	307,6696
150,9550	307,6709
151,9890	307,6690
153,0230	307,6676
154,0570	307,6708
155,0910	307,6693
156,1250	307,6697
157,1590	307,6711
158,1930	307,6707
159,2280	307,6704
160,2630	307,6735
161,2980	307,6708
162,3330	307,6715
163,3670	307,6721
164,4010	307,6737
165,4350	307,6706
166,4690	307,6743
167,5030	307,6709
168,5360	307,6732
169,5700	307,6742
170,6040	307,6732
171,6380	307,6748
172,6720	307,6728
173,7060	307,6718
174,7410	307,6729
175,7760	307,6737
176,8110	307,6748
177,8460	307,6756
178,8810	307,6760
179,9160	307,6760
180,9520	307,6749
181,9860	307,6774
183,0200	307,6769
184,0540	307,6770
185,0880	307,6732
186,1210	307,6749
187,1550	307,6774
188,1890	307,6776
189,2230	307,6767
190,2570	307,6776
191,2910	307,6785
192,3250	307,6779
193,3600	307,6789
194,3950	307,6802
195,4300	307,6815
196,4650	307,6799
197,5000	307,6788
198,5340	307,6797
199,5680	307,6799
200,6020	307,6773
201,6360	307,6785
202,6700	307,6810
203,7040	307,6810
